 #Layer No. | Resistivity | Thickness | Anisotropy
         1         32.90        1.00         1.00
         2         30.91        1.28         1.00
         3         26.84        1.36         1.00
         4         21.51        1.46         1.00
         5         15.86        1.58         1.00
         6         10.82        1.74         1.00
         7          7.03        1.95         1.00
         8          4.72        2.22         1.00
         9          3.68        2.56         1.00
        10          3.23        2.99         1.00
        11          2.50        3.54         1.00
        12          1.89        4.25         1.00
        13          2.40        5.15         1.00
        14          4.81        6.31         1.00
        15          9.62        7.79         1.00
        16         14.66        9.68         1.00
        17         16.23       12.10         1.00
        18         14.81       15.19         1.00
        19         13.43       19.15         1.00
        20         12.95       24.20         1.00
        21         12.87       30.66         1.00
        22         12.85       38.92         1.00
        23         12.84       49.48         1.00
        24         12.84       62.98         1.00
        25         12.84       80.25         1.00
        26         12.84      102.32         1.00
        27         12.84      130.54         1.00
        28         12.84      166.61         1.00
        29         12.84      212.74         1.00
        30         12.84        0.00         1.00
# Calibration factor:  1.0000
# Tx-Distortion Txx:   1.0000
# Tx-Distortion Txy:   0.0000
# Error:                0.791
